File: FractureLab/PC 1.csv
Time (s),Displacement (mm) ,Load (N),Width (mm),Base (mm),Final crack length (mm)
0,0.001,0.38,25.4,6.28,6.85
0.4,0.0015,1.03
0.8,0.0049,5.55
1.2,0.0088,10.07
1.6,0.0133,15.24
2,0.0174,19.11
2.4,0.021,22.34
2.8,0.0249,27.51
3.2,0.0292,30.74
3.6,0.0328,35.26
4,0.0371,39.78
4.4,0.0412,44.30
4.8,0.0453,48.17
5.2,0.0487,50.76
5.6,0.0521,53.99
6,0.056,58.51
6.4,0.0601,62.38
6.8,0.0642,66.26
7.2,0.0687,70.13
7.6,0.0726,74.01
8,0.076,77.88
8.4,0.0801,82.40
8.8,0.0844,85.63
9.2,0.0892,91.45
9.6,0.093,95.97
10,0.0969,98.55
10.4,0.1008,103.72
10.8,0.1046,107.59
11.2,0.1085,110.82
11.6,0.1126,115.34
12,0.1164,119.22
12.4,0.1205,121.80
12.8,0.1242,126.32
13.2,0.1282,130.84
13.6,0.1321,136.01
14,0.136,138.59
14.4,0.1403,143.76
14.8,0.1439,146.34
15.2,0.1478,150.86
15.6,0.1519,155.38
16,0.1555,158.61
16.4,0.1591,163.13
16.8,0.1632,167.01
17.2,0.1671,170.24
17.6,0.1712,174.76
18,0.1746,179.28
18.4,0.1787,183.80
18.8,0.1828,187.03
19.2,0.1871,190.91
19.6,0.191,194.13
20,0.195,198.66
20.4,0.1987,202.53
20.8,0.2023,207.05
21.2,0.2064,210.93
21.6,0.2105,214.80
22,0.2141,218.68
22.4,0.2178,223.20
22.8,0.2218,225.78
23.2,0.2259,230.95
23.6,0.2298,234.82
24,0.2337,238.70
24.4,0.2375,243.22
24.8,0.2416,247.09
25.2,0.2455,251.61
25.6,0.2496,254.84
26,0.2534,259.36
26.4,0.2573,262.59
26.8,0.2609,266.47
27.2,0.265,270.99
27.6,0.2693,275.51
28,0.2732,278.74
28.4,0.2771,284.55
28.8,0.2811,288.43
29.2,0.285,291.01
29.6,0.2886,295.53
30,0.2927,299.41
30.4,0.2968,303.28
30.8,0.3014,307.80
31.2,0.305,311.68
31.6,0.3091,316.20
32,0.3127,318.78
32.4,0.317,323.95
32.8,0.3214,328.47
33.2,0.3252,331.70
33.6,0.3295,336.22
34,0.3334,338.80
34.4,0.3373,343.97
34.8,0.3413,347.20
35.2,0.3454,350.43
35.6,0.3497,356.24
36,0.3538,359.47
36.4,0.3577,363.99
36.8,0.3616,367.87
37.2,0.3661,372.39
37.6,0.3697,376.26
38,0.3738,379.49
38.4,0.3781,384.01
38.8,0.3822,387.89
39.2,0.3859,393.05
39.6,0.3906,396.28
40,0.3945,400.80
40.4,0.399,404.68
40.8,0.4031,408.55
41.2,0.407,412.43
41.6,0.4111,415.66
42,0.4154,420.18
42.4,0.4197,424.05
42.8,0.424,429.22
43.2,0.4279,432.45
43.6,0.4322,436.32
44,0.4365,440.85
44.4,0.4406,444.72
44.8,0.4449,448.60
45.2,0.4495,451.18
45.6,0.4531,455.70
46,0.4574,460.22
46.4,0.4617,463.45
46.8,0.4665,467.97
47.2,0.4706,472.49
47.6,0.4749,475.72
48,0.4788,480.24
48.4,0.4836,483.47
48.8,0.4872,487.99
49.2,0.4913,491.87
49.6,0.4958,495.10
50,0.5008,500.26
50.4,0.5047,502.85
50.8,0.5088,508.01
51.2,0.5131,511.89
51.6,0.5176,515.76
52,0.5217,520.93
52.4,0.5263,524.80
52.8,0.5306,528.68
53.2,0.5347,532.56
53.6,0.539,535.78
54,0.5438,541.60
54.4,0.5481,544.83
54.8,0.5522,548.70
55.2,0.5565,552.58
55.6,0.5613,556.45
56,0.5653,559.68
56.4,0.5694,562.91
56.8,0.5737,567.43
57.2,0.5783,570.66
57.6,0.5826,575.83
58,0.5867,579.06
58.4,0.5917,582.93
58.8,0.5962,587.45
59.2,0.6003,591.33
59.6,0.6046,595.85
60,0.6096,601.01
60.4,0.6144,605.54
60.8,0.6185,608.76
61.2,0.6233,611.99
61.6,0.6278,617.16
62,0.6321,619.74
62.4,0.6369,625.56
62.8,0.6408,628.79
63.2,0.6453,632.66
63.6,0.6501,636.54
64,0.6546,639.76
64.4,0.6589,644.93
64.8,0.6633,648.16
65.2,0.6676,652.04
65.6,0.6726,656.56
66,0.6771,659.79
66.4,0.6817,664.95
66.8,0.6862,666.89
67.2,0.6905,672.06
67.6,0.6953,676.58
68,0.7001,679.81
68.4,0.7048,683.68
68.8,0.7094,688.20
69.2,0.7139,692.08
69.6,0.7187,696.60
70,0.723,700.47
70.4,0.7282,704.35
70.8,0.7325,708.22
71.2,0.7375,712.74
71.6,0.7425,715.33
72,0.7471,719.85
72.4,0.7512,723.72
72.8,0.7559,728.24
73.2,0.7607,732.77
73.6,0.7657,736.64
74,0.7703,739.87
74.4,0.7753,744.39
74.8,0.7798,747.62
75.2,0.7843,752.14
75.6,0.7896,757.31
76,0.7941,761.18
76.4,0.7989,763.77
76.8,0.8034,767.64
77.2,0.8087,772.16
77.6,0.8137,776.04
78,0.8184,781.20
78.4,0.8234,784.43
78.8,0.8284,788.95
79.2,0.8339,793.47
79.6,0.8386,796.06
80,0.8439,801.87
80.4,0.8489,805.10
80.8,0.8536,808.98
81.2,0.8586,812.85
81.6,0.8639,816.08
82,0.8695,821.25
82.4,0.8748,825.12
82.8,0.88,828.35
83.2,0.8848,832.87
83.6,0.8902,837.39
84,0.8952,841.27
84.4,0.9002,845.79
84.8,0.9052,848.37
85.2,0.9102,852.89
85.6,0.9159,858.06
86,0.9209,861.29
86.4,0.9263,865.16
86.8,0.9313,870.33
87.2,0.9363,872.27
87.6,0.9418,876.14
88,0.9468,880.66
88.4,0.952,885.18
88.8,0.9577,889.06
89.2,0.9627,892.93
89.6,0.9684,897.46
90,0.9736,900.68
90.4,0.9788,906.50
90.8,0.9845,909.08
91.2,0.9899,913.60
91.6,0.9954,918.12
92,1.0008,922.00
92.4,1.0065,925.87
92.8,1.0118,929.10
93.2,1.0172,932.98
93.6,1.0231,938.14
94,1.0288,942.02
94.4,1.034,945.89
94.8,1.039,949.12
95.2,1.0454,953.00
95.6,1.0508,956.87
96,1.0567,960.75
96.4,1.062,966.56
96.8,1.0681,969.14
97.2,1.0733,973.02
97.6,1.0797,977.54
98,1.0856,980.77
98.4,1.0913,985.29
,,
,,
,,
,,
,,
,,
,,
,,
,,
,,
,,
,,
,,
,,
,,
,,
,,
,,
,,
,,
,,
,,
,,
,,
,,
,,
,,
,,
,,
,,
,,
,,
,,
,,
,,
,,
,,
,,
,,
,,
,,
,,
,,
,,
,,
,,
,,
,,
,,
,,
,,
,,
,,
,,
,,
,,
,,
,,
,,
,,
,,
,,
,,
,,
,,
,,
,,
,,
,,
,,
,,