File: FractureLab/PC 2.csv
Time (s),Displacement (mm) ,Load (N),Width (mm),Base (mm),Final crack length (mm)
0,-0.0007,-0.81,25.4,6.28,5.48
0.4,0.0004,1.13
0.8,0.0045,5.65
1.2,0.0081,10.82
1.6,0.0122,14.69
2,0.0154,18.57
2.4,0.0183,22.44
2.8,0.022,26.96
3.2,0.0252,32.13
3.6,0.0286,35.36
4,0.0315,38.59
4.4,0.0349,43.75
4.8,0.0386,47.63
5.2,0.0417,51.50
5.6,0.0445,54.73
6,0.0481,59.90
6.4,0.0508,63.78
6.8,0.054,68.30
7.2,0.0572,72.17
7.6,0.0608,76.05
8,0.0638,79.28
8.4,0.0672,83.80
8.8,0.0704,88.32
9.2,0.0731,90.90
9.6,0.0758,95.42
10,0.079,98.65
10.4,0.0822,102.53
10.8,0.0856,107.69
11.2,0.0885,110.28
11.6,0.0922,114.80
12,0.0954,118.03
12.4,0.0988,123.19
12.8,0.102,126.42
13.2,0.1054,132.88
13.6,0.1085,135.46
14,0.1117,139.99
14.4,0.1149,143.86
14.8,0.1176,147.09
15.2,0.1213,151.61
15.6,0.1244,155.49
16,0.1276,160.01
16.4,0.1303,163.88
16.8,0.134,167.11
17.2,0.1369,170.99
17.6,0.1399,175.51
18,0.1433,179.38
18.4,0.1467,183.90
18.8,0.1497,187.78
19.2,0.1528,192.30
19.6,0.1562,194.88
20,0.159,199.40
20.4,0.1619,202.63
20.8,0.1653,207.15
21.2,0.1687,210.38
21.6,0.1715,216.19
22,0.1753,219.42
22.4,0.1785,223.30
22.8,0.1812,227.17
23.2,0.1844,231.69
23.6,0.1878,234.92
24,0.1912,239.44
24.4,0.1942,243.32
24.8,0.1974,247.19
25.2,0.2008,251.07
25.6,0.2035,255.59
26,0.2069,259.47
26.4,0.2108,263.34
26.8,0.2135,267.22
27.2,0.2169,271.09
27.6,0.2203,275.61
28,0.2233,278.19
28.4,0.2267,283.36
28.8,0.2299,287.88
29.2,0.2333,291.76
29.6,0.2364,294.99
30,0.2396,298.86
30.4,0.2428,303.38
30.8,0.2462,308.55
31.2,0.2494,311.78
31.6,0.2528,315.65
32,0.256,318.88
32.4,0.2592,323.40
32.8,0.2626,328.57
33.2,0.266,331.80
33.6,0.2689,336.32
34,0.2723,339.55
34.4,0.2753,342.78
34.8,0.2787,347.95
35.2,0.2823,351.82
35.6,0.2853,356.99
36,0.2889,360.22
36.4,0.2921,362.80
36.8,0.2955,367.97
37.2,0.2989,372.49
37.6,0.3023,376.36
38,0.3055,380.24
38.4,0.3089,385.40
38.8,0.3125,387.99
39.2,0.3153,391.86
39.6,0.3191,395.74
40,0.3221,400.90
40.4,0.3255,403.49
40.8,0.3289,408.01
41.2,0.3319,411.24
41.6,0.3355,415.76
42,0.3384,420.28
42.4,0.3423,424.16
42.8,0.3457,427.38
43.2,0.3489,432.55
43.6,0.3521,436.43
44,0.3555,440.30
44.4,0.3587,444.18
44.8,0.3621,447.41
45.2,0.3657,451.93
45.6,0.3693,455.16
46,0.3723,460.32
46.4,0.3759,464.20
46.8,0.3793,468.72
47.2,0.3825,472.59
47.6,0.3862,476.47
48,0.3893,480.99
48.4,0.3925,484.22
48.8,0.3964,488.74
49.2,0.3998,492.61
49.6,0.4032,495.84
50,0.4064,499.72
50.4,0.4098,504.24
50.8,0.4136,508.11
51.2,0.4168,511.99
51.6,0.4202,516.51
52,0.4236,520.39
52.4,0.4275,524.26
52.8,0.4307,528.78
53.2,0.4339,532.01
53.6,0.4375,535.89
54,0.4411,539.76
54.4,0.4445,544.28
54.8,0.4479,548.16
55.2,0.4511,551.39
55.6,0.4548,556.55
56,0.4582,560.43
56.4,0.4616,564.30
56.8,0.4652,568.18
57.2,0.4688,572.05
57.6,0.472,577.22
58,0.4754,580.45
58.4,0.4795,584.97
58.8,0.4827,589.49
59.2,0.4863,593.37
59.6,0.4897,595.95
60,0.4927,599.82
60.4,0.4963,603.70
60.8,0.5,607.57
61.2,0.5034,610.80
61.6,0.507,615.32
62,0.5106,619.84
62.4,0.5143,623.72
62.8,0.5179,627.60
63.2,0.5216,631.47
63.6,0.5259,637.28
64,0.5291,639.87
64.4,0.5325,645.03
64.8,0.5361,648.91
65.2,0.54,652.78
65.6,0.5436,657.30
66,0.5475,660.53
66.4,0.5513,665.05
66.8,0.5547,668.28
67.2,0.5584,673.45
67.6,0.5615,677.32
68,0.5647,680.55
68.4,0.5688,684.43
68.8,0.5724,688.30
69.2,0.5763,693.47
69.6,0.5802,696.70
70,0.5836,700.58
70.4,0.5874,704.45
70.8,0.5911,708.33
71.2,0.5947,712.20
71.6,0.5981,716.72
72,0.6017,719.30
72.4,0.6056,725.12
72.8,0.6092,728.99
73.2,0.6133,732.22
73.6,0.617,736.10
74,0.6206,739.97
74.4,0.6245,744.49
74.8,0.6286,749.01
75.2,0.6324,751.60
75.6,0.6361,756.76
76,0.6395,759.99
76.4,0.6435,763.87
76.8,0.6474,769.03
77.2,0.6517,772.91
77.6,0.6556,776.78
78,0.6592,780.66
78.4,0.6629,785.18
78.8,0.6669,788.41
79.2,0.6706,792.93
79.6,0.6747,797.45
80,0.6785,800.03
80.4,0.6829,803.91
80.8,0.6865,809.08
81.2,0.6906,812.95
81.6,0.6942,816.83
82,0.6985,820.06
82.4,0.7024,823.93
82.8,0.7063,829.10
83.2,0.7101,832.97
83.6,0.7142,836.20
84,0.7181,841.37
84.4,0.7222,844.60
84.8,0.726,849.12
85.2,0.7306,852.99
85.6,0.734,857.51
86,0.7385,861.39
86.4,0.7424,865.91
86.8,0.7465,869.14
87.2,0.7506,873.66
87.6,0.7549,877.54
88,0.759,881.41
88.4,0.7633,885.29
88.8,0.7674,890.45
89.2,0.7719,893.04
89.6,0.7758,897.56
90,0.7796,901.43
90.4,0.7842,905.95
90.8,0.788,909.18
91.2,0.7924,913.06
91.6,0.7964,916.93
92,0.8008,920.16
92.4,0.8055,925.97
92.8,0.8094,929.20
93.2,0.8146,933.08
93.6,0.8214,936.95
94,0.8273,940.18
94.4,0.8342,945.35
94.8,0.8401,949.87
95.2,0.8548,949.22