File: FractureLab/PC 3.csv
Time (s),Displacement (mm) ,Load (N),Width (mm),Base (mm),Final crack length (mm)
0,-0.0008,-0.56,25.4,6.28,5.57
0.4,0.0003,1.37
0.8,0.0033,5.25
1.2,0.0074,9.12
1.6,0.0114,13.00
2,0.0151,18.17
2.4,0.0187,22.04
2.8,0.0219,25.92
3.2,0.0248,30.44
3.6,0.0285,34.96
4,0.0321,38.83
4.4,0.0357,42.71
4.8,0.0394,46.58
5.2,0.0426,49.81
5.6,0.0457,53.69
6,0.0494,58.21
6.4,0.0528,62.73
6.8,0.0562,65.96
7.2,0.0598,71.12
7.6,0.0632,75.00
8,0.0669,78.87
8.4,0.0698,82.75
8.8,0.0735,87.27
9.2,0.0766,90.50
9.6,0.08,94.37
10,0.0841,98.90
10.4,0.0869,102.77
10.8,0.0907,107.29
11.2,0.0939,111.17
11.6,0.0973,113.75
12,0.1009,118.92
12.4,0.1046,123.44
12.8,0.108,126.67
13.2,0.1112,130.54
13.6,0.1148,135.06
14,0.1184,139.58
14.4,0.1216,141.52
14.8,0.1255,146.69
15.2,0.1284,151.21
15.6,0.1321,155.08
16,0.1357,158.31
16.4,0.1389,163.48
16.8,0.1425,166.71
17.2,0.1457,169.94
17.6,0.1491,175.10
18,0.1523,178.33
18.4,0.1562,182.21
18.8,0.1598,187.38
19.2,0.163,191.25
19.6,0.1662,195.13
20,0.1696,199.00
20.4,0.1732,202.88
20.8,0.1766,208.04
21.2,0.1798,211.27
21.6,0.1832,215.15
22,0.1864,219.67
22.4,0.1895,223.54
22.8,0.1932,227.42
23.2,0.1961,231.94
23.6,0.1998,236.46
24,0.2032,239.04
24.4,0.2064,242.92
24.8,0.2095,247.44
25.2,0.2129,251.96
25.6,0.2164,255.83
26,0.2198,258.42
26.4,0.2232,263.58
26.8,0.2264,267.46
27.2,0.2298,271.33
27.6,0.2329,275.21
28,0.2363,279.73
28.4,0.2398,282.96
28.8,0.2427,286.84
29.2,0.2457,290.06
29.6,0.2493,295.23
30,0.2527,297.81
30.4,0.2559,301.69
30.8,0.2597,304.92
31.2,0.2629,310.09
31.6,0.2659,313.96
32,0.2693,317.84
32.4,0.2727,322.36
32.8,0.2768,327.52
33.2,0.28,332.04
33.6,0.2834,336.56
34,0.2872,341.09
34.4,0.29,343.02
34.8,0.2936,348.19
35.2,0.297,352.07
35.6,0.3006,355.94
36,0.304,359.17
36.4,0.3068,363.69
36.8,0.3106,368.21
37.2,0.3136,372.09
37.6,0.3175,375.96
38,0.3209,379.84
38.4,0.3243,383.07
38.8,0.3274,388.88
39.2,0.3309,390.82
39.6,0.3343,394.69
40,0.3381,399.21
40.4,0.3418,403.73
40.8,0.3452,406.96
41.2,0.3483,410.84
41.6,0.352,416.00
42,0.3552,418.59
42.4,0.3588,423.75
42.8,0.3624,426.98
43.2,0.3663,430.86
43.6,0.3695,434.73
44,0.3729,439.25
44.4,0.3767,441.84
44.8,0.3802,447.00
45.2,0.3838,452.17
45.6,0.3874,455.40
46,0.3908,458.63
46.4,0.3942,463.15
46.8,0.3979,467.02
47.2,0.4011,471.55
47.6,0.4047,475.42
48,0.4083,479.94
48.4,0.4117,481.88
48.8,0.4156,487.69
49.2,0.4185,491.57
49.6,0.4226,495.44
50,0.426,499.96
50.4,0.4297,503.84
50.8,0.4331,507.07
51.2,0.4365,511.59
51.6,0.4406,515.46
52,0.4444,519.34
52.4,0.4479,524.50
52.8,0.4517,526.44
53.2,0.4551,530.96
53.6,0.4588,534.84
54,0.4622,538.07
54.4,0.4658,543.23
54.8,0.4699,547.75
55.2,0.4735,552.28
55.6,0.4767,554.86
56,0.4803,559.38
56.4,0.4837,563.90
56.8,0.4878,569.07
57.2,0.4912,571.01
57.6,0.4949,574.88
58,0.499,580.05
58.4,0.5026,583.28
58.8,0.506,587.15
59.2,0.5101,591.03
59.6,0.5133,595.55
60,0.5176,600.07
60.4,0.521,603.94
60.8,0.5251,608.46
61.2,0.5287,611.69
61.6,0.5324,616.21
62,0.5362,620.73
62.4,0.5396,623.32
62.8,0.5437,627.84
63.2,0.5474,631.71
63.6,0.551,636.24
64,0.5549,640.76
64.4,0.5589,644.63
64.8,0.5626,648.51
65.2,0.5664,651.09
65.6,0.5705,656.26
66,0.5739,659.49
66.4,0.578,664.01
66.8,0.5819,668.53
67.2,0.5855,671.76
67.6,0.5892,675.63
68,0.5932,679.51
68.4,0.5969,684.03
68.8,0.601,687.26
69.2,0.6048,691.78
69.6,0.6085,696.30
70,0.6123,698.88
70.4,0.6164,703.40
70.8,0.6198,707.28
71.2,0.6241,711.80
71.6,0.6282,716.32
72,0.6314,719.55
72.4,0.6357,724.07
72.8,0.6394,727.94
73.2,0.6435,732.47
73.6,0.6475,736.34
74,0.6514,740.22
74.4,0.6557,744.09
74.8,0.6594,747.97
75.2,0.6632,752.49
75.6,0.6669,756.36
76,0.6709,760.24
76.4,0.6753,764.11
76.8,0.6791,767.99
77.2,0.6832,772.51
77.6,0.6871,776.38
78,0.6916,780.90
78.4,0.6955,784.13
78.8,0.6996,788.65
79.2,0.7039,792.53
79.6,0.7075,795.11
80,0.7116,798.99
80.4,0.7157,802.86
80.8,0.7202,807.38
81.2,0.7239,811.26
81.6,0.7284,814.49
82,0.7323,819.01
82.4,0.7366,822.88
82.8,0.7409,826.76
83.2,0.7448,830.63
83.6,0.7495,836.45
84,0.7534,840.97
84.4,0.7582,844.84
84.8,0.7618,848.72
85.2,0.7661,853.88
85.6,0.7702,856.47
86,0.775,861.63
86.4,0.7786,864.22
86.8,0.7829,868.74
87.2,0.7873,872.61
87.6,0.7916,877.13
88,0.7959,881.65
88.4,0.8004,883.59
88.8,0.805,888.76
89.2,0.8091,892.63
89.6,0.8136,896.51
90,0.8177,901.03
90.4,0.822,904.91
90.8,0.827,908.13
91.2,0.8311,912.01
91.6,0.835,916.53
92,0.84,919.76
92.4,0.8441,924.28
92.8,0.8488,928.16
93.2,0.8527,932.68
93.6,0.8572,935.26
94,0.862,939.78
94.4,0.8663,944.30
94.8,0.8711,948.18
95.2,0.8756,952.70
95.6,0.88,956.57
96,0.8843,959.80
96.4,0.8888,963.68
96.8,0.8934,968.20
97.2,0.8984,972.72
97.6,0.9024,977.24
98,0.9072,980.47
98.4,0.9115,984.34
98.8,0.9161,988.86
99.2,0.9208,992.74
99.6,0.9254,995.97
100,0.9308,1001.78
100.4,0.9349,1005.01
100.8,0.9399,1008.89
101.2,0.9442,1012.76
101.6,0.9492,1017.28
102,0.954,1020.51
102.4,0.9586,1025.03
102.8,0.9638,1028.26
103.2,0.9683,1032.78
103.6,0.9733,1036.66
104,0.9783,1041.18
104.4,0.9829,1045.05
104.8,0.9876,1048.28
105.2,0.9924,1052.80
105.6,0.9974,1056.68
106,1.0022,1060.55
106.4,1.0072,1064.43
106.8,1.0119,1069.59
,,
,,
,,
,,
,,
,,
,,
,,
,,
,,
,,
,,
,,
,,
,,
,,
,,
,,
,,
,,
,,
,,
,,
,,
,,
,,
,,
,,
,,
,,
,,
,,
,,
,,
,,
,,
,,
,,
,,
,,
,,
,,
,,
,,
,,
,,
,,
,,
,,
,,
,,
,,
,,
,,
,,
,,
,,
,,
,,
,,
,,
,,
,,
,,
,,
,,
,,
,,
,,
,,
,,
,,
,,
,,
,,
,,
,,
,,
,,
,,
,,
,,
,,