File: FractureLab/PMMA 1.csv
Time (s),Displacement (mm) ,Load (N),Width (mm),Base (mm),Final crack length (mm)
0,0.0023,-1.14478,25,8.53,7.1
0.1,0.00231,-1.15156
0.2,0.00235,-0.84531
0.3,0.00272,-0.71097
0.4,0.00361,0.12439
0.5,0.00457,1.05108
0.6,0.00529,1.70744
0.7,0.00596,2.13968
0.8,0.00659,3.09628
0.9,0.00738,3.78196
1,0.00802,4.27822
1.1,0.00886,5.14269
1.2,0.00961,5.86269
1.3,0.01047,6.31237
1.4,0.01122,7.05764
1.5,0.01205,8.00154
1.6,0.01288,8.62185
1.7,0.01372,9.56235
1.8,0.01463,10.13833
1.9,0.01548,10.94068
2,0.01639,11.3416
2.1,0.01732,12.05849
2.2,0.01818,12.82671
2.3,0.01916,13.45641
2.4,0.0201,13.77351
2.5,0.02111,14.72114
2.6,0.02206,15.08218
2.7,0.023,15.81837
2.8,0.02394,16.48388
2.9,0.02483,17.35903
3,0.02579,17.92222
3.1,0.0268,18.8878
3.2,0.02776,19.66586
3.3,0.02878,20.42975
3.4,0.02973,21.67407
3.5,0.03077,22.62379
3.6,0.03178,23.09729
3.7,0.03278,24.08599
3.8,0.03388,24.65179
3.9,0.03489,25.67009
4,0.0359,26.47036
4.1,0.03702,27.71485
4.2,0.03796,28.79984
4.3,0.03902,29.55363
4.4,0.04007,30.66947
4.5,0.04115,31.85209
4.6,0.0422,33.00138
4.7,0.04335,33.13739
4.8,0.04442,34.64483
4.9,0.04555,34.98527
5,0.04659,35.41292
5.1,0.04775,36.39535
5.2,0.04891,37.39465
5.3,0.05009,38.52206
5.4,0.05121,41.00766
5.5,0.0522,40.71189
5.6,0.05322,43.33162
5.7,0.05437,45.40079
5.8,0.05553,48.57234
5.9,0.05659,50.60286
6,0.05773,53.34846
6.1,0.05884,55.99457
6.2,0.05995,59.75863
6.3,0.06116,60.98085
6.4,0.06219,63.66657
6.5,0.0634,66.2074
6.6,0.06464,67.34251
6.7,0.06578,69.24298
6.8,0.06698,70.61695
6.9,0.06819,72.15218
7,0.06935,73.02072
7.1,0.07047,74.26044
7.2,0.07158,75.16439
7.3,0.07284,76.67005
7.4,0.07407,77.81199
7.5,0.07527,79.52032
7.6,0.0764,80.1192
7.7,0.07756,81.42245
7.8,0.07877,82.72708
7.9,0.0799,84.05494
8,0.08106,84.3689
8.1,0.08232,86.02249
8.2,0.08351,86.78911
8.3,0.08463,87.28172
8.4,0.08582,88.35379
8.5,0.08712,89.33047
8.6,0.08849,90.48584
8.7,0.08966,92.33984
8.8,0.09093,94.80777
8.9,0.09224,96.73262
9,0.09346,99.83308
9.1,0.09468,102.889
9.2,0.09585,107.558
9.3,0.09707,110.597
9.4,0.09825,114.758
9.5,0.09945,118.158
9.6,0.10065,122.809
9.7,0.10189,126.173
9.8,0.10322,127.684
9.9,0.10447,130.573
10,0.10577,132.828
10.1,0.1072,135.281
10.2,0.10844,137.2458
10.3,0.10967,138.725
10.4,0.11089,140.734
10.5,0.11221,142.388
10.6,0.11351,143.229
10.7,0.11473,144.942
10.8,0.11603,146.946
10.9,0.11734,148.522
11,0.11851,150.274
11.1,0.11982,152.499
11.2,0.12114,154.241
11.3,0.1225,155.162
11.4,0.12378,156.742
11.5,0.12506,158.02
11.6,0.12634,159.172
11.7,0.1276,160.549
11.8,0.12883,161.671
11.9,0.13002,163.717
12,0.1314,165.296
12.1,0.13276,168.184
12.2,0.13402,170.552
12.3,0.13532,173.1944
12.4,0.13664,174.184
12.5,0.13789,176.963
12.6,0.13919,178.831
12.7,0.14057,180.7299
12.8,0.14193,181.5435
12.9,0.14323,183.256
13,0.14453,184.476
13.1,0.14592,186.1956
13.2,0.14727,187.142
13.3,0.14864,189.277
13.4,0.15002,191.931
13.5,0.15133,193.5488
13.6,0.15263,196.069
13.7,0.15396,200.312
13.8,0.15529,202.318
13.9,0.15656,205.52
14,0.15789,208.427
14.1,0.15926,210.822
14.2,0.16059,214.05
14.3,0.16197,215.358
14.4,0.16332,218.173
14.5,0.16473,220.048
14.6,0.16612,220.997
14.7,0.16753,221.584
14.8,0.16888,223.511
14.9,0.17023,224.133
15,0.17163,225.02
15.1,0.17304,225.142
15.2,0.17438,226.046
15.3,0.17586,226.643
15.4,0.17719,227.048
15.5,0.17864,227.701
15.6,0.17999,228.558
15.7,0.18146,229.487
15.8,0.18284,230.731
15.9,0.18415,232.103
16,0.18555,233.459
16.1,0.18695,234.773
16.2,0.18838,236.782
16.3,0.18975,237.62
16.4,0.19116,238.032
16.5,0.19264,240.184
16.6,0.19407,241.988
16.7,0.19546,242.7457
16.8,0.19689,243.962
16.9,0.19826,246.123
17,0.19961,247.03
17.1,0.201,248.31
17.2,0.20242,251.426
17.3,0.20398,253.046
17.4,0.20534,255.98
17.5,0.2068,256.208
17.6,0.2082,257.211
17.7,0.20978,259.076
17.8,0.21129,260.069
17.9,0.21272,261.0466
18,0.2142,262.5517
18.1,0.21596,263.568
18.2,0.21893,260.589
18.3,0.22212,257.54
18.4,0.2267,249.088
18.5,0.23113,242.085
18.6,0.23541,237.143
18.7,0.23994,230.573
18.8,0.2459,225.73
18.9,0.2515,220.847
19,0.25756,205.511
19.1,0.26366,187.146
19.2,0.26951,177.851
19.3,0.27511,164.544
19.4,0.28046,156.117
19.5,0.28553,147.968
19.6,0.29041,140.194
19.7,0.29523,132.2885
19.8,0.2997,121.065
19.9,0.30414,105.284
20,0.30852,94.16569
20.1,0.31285,88.76471
20.2,0.31693,86.16821
20.3,0.32093,83.42893
20.4,0.32501,79.95058
20.5,0.32903,76.80898
20.6,0.33279,73.94583
20.7,0.33671,70.68436
20.8,0.34068,66.64494
20.9,0.34449,62.49063
21,0.34815,55.73835
21.1,0.35183,50.45129
21.2,0.35547,44.59428
21.3,0.35894,40.83062
21.4,0.36255,38.64299
21.5,0.36618,36.90435
21.6,0.36971,35.9212
21.7,0.37296,34.38946
21.8,0.37625,33.06725
21.9,0.37953,31.48973
22,0.38292,30.36126
22.1,0.38626,28.66372
22.2,0.38929,27.4732
22.3,0.39231,26.6715
22.4,0.3955,26.10674
22.5,0.39855,24.52463
22.6,0.40159,23.18184
22.7,0.40456,21.96024
22.8,0.40763,21.49035
22.9,0.4106,20.958
23,0.41351,19.76074
23.1,0.41632,18.99047
23.2,0.41919,17.99379
23.3,0.42197,17.38358
23.4,0.42481,16.78284
23.5,0.42765,16.09141
23.6,0.43042,15.92413
23.7,0.43319,15.16038
23.8,0.43583,14.78737
23.9,0.43854,14.70335
24,0.4413,14.05695
24.1,0.44402,13.64147
24.2,0.44665,13.32614
24.3,0.44931,12.86127
24.4,0.452,12.58231
24.5,0.45482,12.28763
24.6,0.4574,11.58866
24.7,0.45984,11.15088
24.8,0.46259,11.31248
24.9,0.46527,10.61778
25,0.46778,10.528
25.1,0.47032,10.49383
25.2,0.47277,9.58425
25.3,0.47533,10.14055
25.4,0.47789,9.77393
25.5,0.48041,9.45186
25.6,0.48306,9.14812
25.7,0.48564,9.13077
25.8,0.48814,8.80347
25.9,0.49056,7.93781
26,0.49307,8.11045
26.1,0.49569,8.01172
26.2,0.49822,7.33575
26.3,0.50065,7.31572
26.4,0.50312,5.98535
26.5,0.50554,5.71495
26.6,0.50796,5.513
26.7,0.51033,5.05957
26.8,0.51273,5.14158
26.9,0.51528,4.83694
27,0.5177,4.55304
27.1,0.52005,4.18103
27.2,0.52261,4.3866
27.3,0.52525,3.99111
27.4,0.52773,4.0216
27.5,0.53012,3.60681
27.6,0.53242,2.88637
27.7,0.53486,2.92359
27.8,0.53721,3.18551
27.9,0.53964,2.77555
28,0.54213,2.35032
28.1,0.5445,1.763
28.2,0.54674,2.04383
28.3,0.54907,1.54725
28.4,0.55149,1.70581
28.5,0.554,1.29519
28.6,0.55638,0.94917
28.7,0.55879,0.75749
28.8,0.56129,0.80139
28.9,0.56371,0.55477
29,0.56595,0.84036
29.1,0.5683,1.59511
29.2,0.57069,0.86298
29.3,0.57307,1.02383
29.4,0.57541,0.08106
29.404,0.5755,-0.0321