File: FractureLab/PMMA 3.csv
Time (s),Displacement (mm) ,Load (N),Width (mm),Base (mm),Final crack length (mm)
0,0.00061,-0.01575,25,8.53,5.54
0.1,0.00061,0.21838
0.2,0.00064,-0.05117
0.3,0.00073,0.04206
0.4,0.00114,0.39357
0.5,0.0018,0.99005
0.6,0.00245,1.47319
0.7,0.00295,2.43242
0.8,0.00355,2.85138
0.9,0.00419,3.60042
1,0.00482,3.7854
1.1,0.0055,4.29322
1.2,0.00621,4.97928
1.3,0.00693,5.34206
1.4,0.00766,6.05359
1.5,0.0084,5.76452
1.6,0.00911,6.81875
1.7,0.00982,6.99175
1.8,0.0106,7.29806
1.9,0.01144,7.81023
2,0.01205,8.143
2.1,0.01281,8.63604
2.2,0.01356,8.61805
2.3,0.01429,9.11908
2.4,0.01499,9.22419
2.5,0.01575,9.63124
2.6,0.01656,9.77222
2.7,0.01728,10.08266
2.8,0.01807,10.20769
2.9,0.01894,10.51035
3,0.01978,10.63838
3.1,0.02052,10.87401
3.2,0.0213,10.99951
3.3,0.02213,11.01178
3.4,0.02299,11.31092
3.5,0.02381,11.56433
3.6,0.02463,11.36477
3.7,0.02551,11.72027
3.8,0.02644,11.93267
3.9,0.02726,12.10176
4,0.02806,12.24816
4.1,0.02892,12.42675
4.2,0.02986,12.89369
4.3,0.03067,12.98246
4.4,0.03152,12.95796
4.5,0.03247,13.58948
4.6,0.03341,13.97102
4.7,0.03421,13.84148
4.8,0.03509,14.2571
4.9,0.03604,15.17896
5,0.03701,15.48263
5.1,0.03789,15.63389
5.2,0.03888,15.65347
5.3,0.03978,16.4735
5.4,0.04077,17.12921
5.5,0.04166,18.1246
5.6,0.04268,18.40712
5.7,0.04359,18.95156
5.8,0.04459,20.17756
5.9,0.04547,20.8232
6,0.04647,21.55432
6.1,0.04743,22.39057
6.2,0.04838,23.87548
6.3,0.04932,23.7708
6.4,0.05026,24.87649
6.5,0.05124,26.16372
6.6,0.05228,27.23972
6.7,0.05322,29.11136
6.8,0.0542,30.33735
6.9,0.05526,31.57452
7,0.05627,33.60135
7.1,0.05733,34.43261
7.2,0.05832,35.90036
7.3,0.0594,37.47142
7.4,0.06037,38.86054
7.5,0.06138,40.68492
7.6,0.06246,41.80246
7.7,0.06351,42.89021
7.8,0.06466,45.39647
7.9,0.06562,47.37757
8,0.06673,49.39325
8.1,0.0678,51.81014
8.2,0.06891,56.10981
8.3,0.06994,58.20413
8.4,0.07104,61.48364
8.5,0.07207,66.23624
8.6,0.07324,68.23104
8.7,0.07428,72.5358
8.8,0.07533,74.01897
8.9,0.0764,76.10774
9,0.07746,78.42439
9.1,0.07851,79.8378
9.2,0.07963,80.63103
9.3,0.08076,82.12532
9.4,0.08192,82.77775
9.5,0.08312,83.85868
9.6,0.08421,85.13221
9.7,0.08536,86.27085
9.8,0.08661,88.95792
9.9,0.08771,90.72602
10,0.08878,92.24462
10.1,0.0899,93.50861
10.2,0.09109,97.98698
10.3,0.09224,98.23112
10.4,0.09333,100.91
10.5,0.09447,104.1582
10.6,0.09565,105.666
10.7,0.09677,107.318
10.8,0.09779,108.311
10.9,0.09895,110.122
11,0.10017,111.497
11.1,0.10134,112.6804
11.2,0.10247,114.523
11.3,0.10364,116.387
11.4,0.10487,119.373
11.5,0.10605,120.166
11.6,0.10712,122.299
11.7,0.10837,125.996
11.8,0.10966,128.832
11.9,0.11089,130.738
12,0.11209,134.14
12.1,0.11332,136.429
12.2,0.11446,138.094
12.3,0.11563,139.637
12.4,0.11678,140.521
12.5,0.11797,141.673
12.6,0.11931,143.243
12.7,0.12045,144.042
12.8,0.12155,145.358
12.9,0.12282,148.062
13,0.12404,150.512
13.1,0.12535,153.163
13.2,0.12668,156.29
13.3,0.12791,160.646
13.4,0.12918,164.201
13.5,0.13035,166.17
13.6,0.13149,167.784
13.7,0.13281,170.717
13.8,0.13412,172.944
13.9,0.13539,174.2093
14,0.1367,175.365
14.1,0.13797,177.604
14.2,0.1394,178.729
14.3,0.14068,180.552
14.4,0.14197,182.639
14.5,0.14341,184.721
14.6,0.14483,186.812
14.7,0.1461,188.843
14.8,0.14744,190.722
14.9,0.14888,192.536
15,0.15024,194.865
15.1,0.15164,196.433
15.2,0.15315,198.466
15.3,0.15461,200.451
15.4,0.1561,201.664
15.5,0.15747,203.344
15.6,0.15896,204.41
15.7,0.16051,205.8232
15.8,0.16203,206.828
15.9,0.16358,208.063
16,0.16516,209.497
16.1,0.16675,210.004
16.2,0.16842,210.99
16.3,0.17002,212.691
16.4,0.17156,213.739
16.5,0.17324,214.57
16.6,0.17484,215.617
16.7,0.17645,215.788
16.8,0.17826,216.972
16.9,0.18009,216.886
17,0.18198,216.8492
17.1,0.18392,217.69
17.2,0.18596,218.708
17.3,0.18807,217.692
17.4,0.19008,217.832
17.5,0.19202,217.805
17.6,0.19406,218.179
17.7,0.19626,217.158
17.8,0.19843,217.364
17.9,0.20057,217.235
18,0.20269,216.161
18.1,0.20496,215.387
18.2,0.20705,215.615
18.3,0.20913,215.452
18.4,0.21137,215.042
18.5,0.21364,214.135
18.6,0.21589,213.538
18.7,0.21801,213.44
18.8,0.22016,212.6911
18.9,0.2224,211.981
19,0.2246,210.773
19.1,0.22686,210.113
19.2,0.22922,209.493
19.3,0.23152,208.723
19.4,0.23382,207.0097
19.5,0.2361,206.278
19.6,0.23845,204.809
19.7,0.24089,203.441
19.8,0.24352,202.631
19.9,0.24605,199.97
20,0.24862,198.158
20.1,0.2512,195.744
20.2,0.2538,193.226
20.3,0.25642,190.5
20.4,0.25902,187.0854
20.5,0.26215,182.915
20.6,0.26647,175.682
20.7,0.27167,163.793
20.8,0.27633,149.423
20.9,0.28072,141.84
21,0.28515,137.477
21.1,0.2892,129.847
21.2,0.29316,120.44
21.3,0.29715,114.1635
21.4,0.3011,109.754
21.5,0.305,105.766
21.6,0.30866,99.16736
21.7,0.31239,93.43984
21.8,0.31626,88.8226
21.9,0.32003,84.57719
22,0.32379,81.9996
22.1,0.32755,78.72014
22.2,0.33123,74.0626
22.3,0.33492,65.77512
22.4,0.33869,58.84795
22.5,0.34247,49.98019
22.6,0.3462,44.83443
22.7,0.34983,41.20316
22.8,0.35336,38.30797
22.9,0.35701,35.09419
23,0.36067,32.11293
23.1,0.36422,28.45911
23.2,0.36772,26.27495
23.3,0.3712,23.96539
23.4,0.37463,22.97846
23.5,0.37789,21.0848
23.6,0.38113,20.18734
23.7,0.38453,18.06936
23.8,0.38801,17.44973
23.9,0.39097,16.13745
24,0.39411,16.18641
24.1,0.39721,15.15628
24.2,0.40034,14.75559
24.3,0.4034,14.11361
24.4,0.40639,13.99005
24.5,0.4094,13.71176
24.6,0.41244,13.0729
24.7,0.41525,12.88484
24.8,0.41814,12.57418
24.9,0.42108,12.56498
25,0.42389,12.36166
25.1,0.42662,12.29697
25.2,0.42949,11.93653
25.3,0.43231,11.85934
25.4,0.43498,11.65326
25.5,0.43761,11.53292
25.6,0.44031,11.39993
25.7,0.44314,11.36691
25.8,0.44579,11.10732
25.9,0.44843,11.11539
26,0.45114,10.89021
26.1,0.45377,10.80594
26.2,0.45627,10.83172
26.3,0.45899,10.77437
26.4,0.46164,10.67557
26.5,0.46432,10.49423
26.6,0.46686,10.20148
26.7,0.4694,10.30307
26.8,0.472,10.19017
26.9,0.47465,10.19528
27,0.47723,10.05143
27.1,0.4797,9.76866
27.2,0.48222,9.77921
27.3,0.48485,9.60284
27.4,0.48743,9.48258
27.5,0.48989,9.30606
27.6,0.49238,9.41973
27.7,0.49487,9.27703
27.8,0.49736,9.33388
27.9,0.49982,9.04659
28,0.50247,8.70678
28.1,0.50505,8.31524
28.2,0.50742,8.41542
28.3,0.50973,8.43918
28.4,0.5122,8.44473
28.5,0.51469,8.13606
28.6,0.51727,7.61967
28.7,0.51969,7.74278
28.8,0.52222,7.56063
28.9,0.52458,7.63512
29,0.52691,7.11727
29.1,0.52919,7.17423
29.2,0.53172,7.13929
29.3,0.53417,7.16565
29.4,0.53656,6.94083
29.5,0.53886,6.84582
29.6,0.54127,6.81523
29.7,0.5437,6.59715
29.8,0.54604,6.66416
29.884,0.54793,6.52914