File: FractureLab/Ti 0deg 1.csv
Time (s),Displacement (mm) ,Load (N),Width (mm),Base (mm),Final crack length (mm)
0,0.00001,-0.9744,25,9.45,6.93
0.3,0.00008,1.96709,,,
0.6,0.00067,19.71032,,,
0.9,0.00122,41.14278,,,
1.2,0.00183,84.56867,,,
1.5,0.00252,136.777,,,
1.8,0.00313,176.502,,,
2.1,0.00387,222.773,,,
2.4,0.00454,248.702,,,
2.7,0.00528,289.804,,,
3,0.00606,331.36,,,
3.3,0.00684,379.186,,,
3.6,0.00762,420.732,,,
3.9,0.00842,456.392,,,
4.2,0.00931,519.814,,,
4.5,0.01013,571.629,,,
4.8,0.01098,615.796,,,
5.1,0.01195,651.753,,,
5.4,0.01288,710.472,,,
5.7,0.0138,772.807,,,
6,0.01493,831.818,,,
6.3,0.01584,868.201,,,
6.6,0.01697,930.834,,,
6.9,0.01797,993.877,,,
7.2,0.01912,1047.7,,,
7.5,0.02018,1097.94,,,
7.8,0.02133,1162.64,,,
8.1,0.02254,1231.39,,,
8.4,0.02366,1274.08,,,
8.7,0.02486,1347.41,,,
9,0.02605,1421.11,,,
9.3,0.02729,1463.75,,,
9.6,0.02845,1528.04,,,
9.9,0.02971,1592.57,,,
10.2,0.03094,1661.99,,,
10.5,0.0322,1717.25,,,
10.8,0.03345,1794.48,,,
11.1,0.03465,1855.81,,,
11.4,0.03585,1900.65,,,
11.7,0.03709,1959.02,,,
12,0.0383,2035.29,,,
12.3,0.03955,2093.03,,,
12.6,0.0409,2157.81,,,
12.9,0.04209,2228.36,,,
13.2,0.04348,2275.41,,,
13.5,0.0449,2355.57,,,
13.8,0.04625,2433.47,,,
14.1,0.04757,2492.09,,,
14.4,0.04882,2551.88,,,
14.7,0.05018,2637.64,,,
15,0.05157,2704.7,,,
15.3,0.0529,2770.32,,,
15.6,0.05421,2825.68,,,
15.9,0.05552,2898.86,,,
16.2,0.05687,2978.29,,,
16.5,0.05821,3060.48,,,
16.8,0.05961,3104.15,,,
17.1,0.06099,3181.22,,,
17.4,0.06246,3267.94,,,
17.7,0.06386,3334.51,,,
18,0.0652,3388.89,,,
18.3,0.06655,3481.52,,,
18.6,0.06796,3542.64,,,
18.9,0.06934,3621.52,,,
19.2,0.07069,3689.33,,,
19.5,0.07219,3754.77,,,
19.8,0.07357,3849.66,,,
20.1,0.07502,3928.35,,,
20.4,0.07636,3966.59,,,
20.7,0.07781,4061.1,,,
21,0.0792,4150.44,,,
21.3,0.08064,4218.6,,,
21.6,0.08202,4282.73,,,
21.9,0.08342,4351.71,,,
22.2,0.0849,4444.94,,,
22.5,0.08632,4523.76,,,
22.8,0.08776,4577.67,,,
23.1,0.08922,4664.77,,,
23.4,0.09067,4756.88,,,
23.7,0.0921,4805.93,,,
24,0.09356,4890.45,,,
24.3,0.09492,4967.04,,,
24.6,0.0963,5053.11,,,
24.9,0.09782,5135.09,,,
25.2,0.0992,5191.65,,,
25.5,0.10069,5286.979,,,
25.8,0.10224,5364.33,,,
26.1,0.10375,5438.4,,,
26.4,0.1052,5515.95,,,
26.7,0.10665,5594.396,,,
27,0.10813,5662.63,,,
27.3,0.1096,5763.83,,,
27.6,0.11107,5824.62,,,
27.9,0.11259,5910.81,,,
28.2,0.11407,5992.86,,,
28.5,0.11558,6073.11,,,
28.8,0.11704,6155.86,,,
29.1,0.11854,6210.83,,,
29.4,0.12006,6322.76,,,
29.7,0.12167,6408.74,,,
30,0.12324,6463.73,,,
30.3,0.12466,6555.54,,,
30.6,0.12625,6636.18,,,
30.9,0.12782,6728.01,,,
31.2,0.12936,6799.79,,,
31.5,0.13085,6882.02,,,
31.8,0.13242,6981.33,,,
32.1,0.13404,7036.66,,,
32.4,0.13554,7131.62,,,
32.7,0.13707,7223.39,,,
33,0.13862,7296.08,,,
33.3,0.14011,7374.44,,,
33.6,0.14178,7466.94,,,
33.9,0.14336,7568.36,,,
34.2,0.14494,7631.34,,,
34.5,0.1465,7718.64,,,
34.8,0.14811,7822.69,,,
35.1,0.14971,7879.75,,,
35.4,0.15133,7977.1,,,
35.7,0.15289,8069.41,,,
36,0.15448,8153.48,,,
36.3,0.1561,8237.97,,,
36.6,0.15772,8314.87,,,
36.9,0.15936,8424.14,,,
37.2,0.16101,8483.63,,,
37.5,0.16271,8578.14,,,
37.8,0.16428,8688.17,,,
38.1,0.16599,8757.63,,,
38.4,0.16747,8852.45,,,
38.7,0.16915,8925.33,,,
39,0.17084,9016.89,,,
39.3,0.17237,9103.92,,,
39.6,0.17404,9196.87,,,
39.9,0.17571,9293.78,,,
40.2,0.1775,9369.41,,,
40.5,0.17917,9465.27,,,
40.8,0.18086,9538.45,,,
41.1,0.18248,9632.57,,,
41.4,0.18413,9719.35,,,
41.7,0.18587,9819.88,,,
42,0.18746,9906.07,,,
42.3,0.1892,9993.09,,,
42.6,0.19086,10094.5,,,
42.9,0.19258,10145.3,,,
43.2,0.1943,10263.7,,,
43.5,0.19597,10345.9,,,
43.8,0.19762,10428.8,,,
44.1,0.19937,10532.7,,,
44.4,0.20115,10620.1,,,
44.7,0.20281,10703,,,
45,0.20461,10786.5,,,
45.3,0.20633,10897.6,,,
45.6,0.20803,10961.5,,,
45.9,0.20975,11053.1,,,
46.2,0.21148,11158.9,,,
46.5,0.21329,11247.9,,,
46.8,0.2151,11339.9,,,
47.1,0.21681,11421.7,,,
47.4,0.21867,11531.8,,,
47.7,0.22047,11583.8,,,
48,0.22225,11700.3,,,
48.3,0.2241,11795.2,,,
48.6,0.2258,11866.7,,,
48.9,0.22759,11970,,,
49.2,0.22925,12067.125,,,
49.5,0.2311,12151.7,,,
49.8,0.23298,12230.1,,,
50.1,0.23486,12350.3,,,
50.4,0.23671,12408.2,,,
50.7,0.23853,12511.4,,,
51,0.24053,12614.5,,,
51.3,0.24255,12690,,,
51.6,0.2444,12791,,,
51.9,0.24675,12856.8,,,
52.2,0.24881,12961.3,,,
52.5,0.25088,13038.8,,,
52.8,0.2529,13128.9,,,
53.1,0.25556,13167.7,,,
53.4,0.25908,13228.6,,,
53.7,0.26135,13322.1,,,
54,0.26362,13414.7,,,
54.3,0.26569,13491.5,,,
54.578,0.27529,13419.8,,,
54.596,0.2979,12933.9,,,
54.63,0.31577,12551.8,,,
54.93,0.31756,12663.5,,,
55.23,0.32073,12774.7,,,
55.53,0.32377,12858.2,,,
55.83,0.32685,12964.5,,,
56.13,0.3297,13037.7,,,
56.43,0.33293,13132.9,,,
56.73,0.33676,13214.3,,,
57.03,0.34114,13234.2,,,
57.33,0.34518,13313.8,,,
57.63,0.34961,13372.2,,,
57.93,0.35385,13424.5,,,
58.23,0.35758,13480.7,,,
58.334,0.38237,12904.6,,,
58.34,0.39768,12519.8,,,
58.35,0.42172,11916.3,,,
58.362,0.444,11360.1,,,
58.38,0.46201,10936.625,,,
58.668,0.47802,10723.4,,,
58.694,0.4988,10260.6,,,
58.7,0.55492,9236.79,,,
58.706,0.64973,7687.28,,,
58.712,0.758,5998.51,,,
58.718,0.86223,4413.59,,,
58.724,0.95289,3062.91,,,
58.73,1.0253,1997.25,,,
58.736,1.07945,1215.5,,,
58.742,1.11695,685.787,,,
58.752,1.15031,235.581,,,
58.9,1.13507,561.887,,,
59.2,1.14082,567.613,,,
59.5,1.14743,575.755,,,
59.8,1.15385,584.291,,,
60.1,1.16031,590.73,,,
60.4,1.16651,593.392,,,
60.7,1.17284,595.8725,,,
61,1.17931,597.857,,,
61.3,1.18559,600.715,,,
61.6,1.19183,602.987,,,
61.9,1.19818,603.4,,,
62.2,1.2048,601.545,,,
62.4,1.20928,600.623,,,