File: FractureLab/Ti 0deg 2.csv
Time (s),Displacement (mm) ,Load (N),Width (mm),Base (mm),Final crack length (mm)
0,-0.00057,0.18876,25.0,9.5,7.22
0.3,-0.00052,5.89393
0.6,0.0002,51.39007
0.9,0.00072,80.16943
1.2,0.00112,120.847
1.5,0.00145,145.043
1.8,0.00191,177.594
2.1,0.00237,207.488
2.4,0.0029,228.828
2.7,0.00349,263.049
3,0.00405,294.741
3.3,0.00476,333.798
3.6,0.00548,376.362
3.9,0.00628,418.395
4.2,0.00701,462.793
4.5,0.00778,517.068
4.8,0.00859,560.949
5.1,0.00946,600.297
5.4,0.0104,633.0733
5.7,0.01133,688.937
6,0.0123,749.488
6.3,0.01326,809.397
6.6,0.01427,837.8
6.9,0.01534,889.845
7.2,0.01639,940.802
7.5,0.01746,996.791
7.8,0.01858,1046.69
8.1,0.0198,1102.46
8.4,0.02092,1157.63
8.7,0.02208,1219.44
9,0.02321,1255.93
9.3,0.02442,1324.79
9.6,0.02564,1385.74
9.9,0.02682,1434.63
10.2,0.02789,1484.91
10.5,0.02913,1552.83
10.8,0.03037,1616.61
11.1,0.03157,1654.51
11.4,0.0328,1720.23
11.7,0.03407,1793.91
12,0.03531,1848.43
12.3,0.0365,1894.57
12.6,0.03784,1962.02
12.9,0.03921,2034.75
13.2,0.04043,2086.8
13.5,0.04169,2151.76
13.8,0.04293,2219.32
14.1,0.04427,2261.95
14.4,0.04566,2338.1
14.7,0.04693,2410.74
15,0.04824,2471.4
15.3,0.04969,2524.69
15.6,0.05101,2604.21
15.9,0.0524,2679.27
16.2,0.05368,2728.32
16.5,0.05504,2792.1
16.8,0.05641,2861.39
17.1,0.05772,2923.09
17.4,0.0591,3013.1
17.7,0.06042,3069.95
18,0.06186,3107.74
18.3,0.06321,3187.4
18.6,0.0647,3275.51
18.9,0.06607,3329.84
19.2,0.06737,3386.78
19.5,0.06883,3472.41
19.8,0.07019,3529.44
20.1,0.0716,3613.21
20.4,0.07303,3673.24
20.7,0.07434,3732.53
21,0.07584,3821.23
21.3,0.07738,3907.55
21.6,0.07887,3943.01
21.9,0.0803,4017.79
22.2,0.0818,4103
22.5,0.0833,4170.86
22.8,0.08477,4245.84
23.1,0.08617,4315.47
23.4,0.08764,4382.61
23.7,0.08912,4470.42
24,0.09065,4533.57
24.3,0.09226,4608.72
24.6,0.09372,4698.29
24.9,0.09523,4755.64
25.2,0.09676,4826.5
25.5,0.09838,4914.13
25.8,0.09985,4982.59
26.1,0.10139,5066.76
26.4,0.1029,5149.38
26.7,0.10446,5203.89
27,0.106,5295.53
27.3,0.10763,5360.7
27.6,0.10927,5445.48
27.9,0.11085,5533.84
28.2,0.11247,5591.25
28.5,0.11399,5676.93
28.8,0.11555,5766.37
29.1,0.11708,5826.25
29.4,0.11882,5903.16
29.7,0.12034,5989.19
30,0.12206,6066.47
30.3,0.12362,6156.98
30.6,0.12513,6211.42
30.9,0.12679,6318.95
31.2,0.12841,6397.21
31.5,0.13004,6458.98
31.8,0.1317,6561.2
32.1,0.13327,6623.48
32.4,0.13504,6715.59
32.7,0.13676,6787.67
33,0.13847,6869.21
33.3,0.14014,6970.33
33.6,0.14186,7019.26
33.9,0.14338,7113.49
34.2,0.145,7208.6
34.5,0.14662,7277.54
34.8,0.14828,7350.95
35.1,0.14994,7438.46
35.4,0.15169,7542.1
35.7,0.1535,7609.16
36,0.1552,7682.33
36.3,0.15687,7786.22
36.6,0.15855,7854.7
36.9,0.16022,7937.41
37.2,0.162,8034.22
37.5,0.16365,8119.77
37.8,0.16547,8200.5
38.1,0.16719,8268.55
38.4,0.1689,8385.36
38.7,0.17063,8452.94
39,0.17231,8534.16
39.3,0.17417,8639.31
39.6,0.17594,8701.32
39.9,0.17764,8794.38
40.2,0.17943,8868.87
40.5,0.18126,8970.12
40.8,0.18303,9059.67
41.1,0.18471,9128.72
41.4,0.18647,9236.57
41.7,0.18813,9295.05
42,0.18995,9398.51
42.3,0.19172,9487.56
42.6,0.19368,9567.3
42.9,0.19566,9677.35
43.2,0.19745,9739.36
43.5,0.1993,9829.3
43.8,0.20099,9910.94
44.1,0.20276,10009.4
44.4,0.20462,10099.6
44.7,0.20639,10178.1
45,0.20822,10281.3
45.3,0.21,10349
45.6,0.21192,10435
45.9,0.21371,10528.4
46.2,0.2156,10623.9
46.5,0.21764,10700.4
46.8,0.21946,10794.4
47.1,0.22134,10899.2
47.4,0.22326,10949.4
47.7,0.22508,11047.8
48,0.22702,11148.1
48.3,0.22889,11233.2
48.6,0.23082,11325.3
48.9,0.23265,11406.6
49.2,0.2346,11512.8
49.5,0.23648,11563.9
49.8,0.23866,11665.9
50.1,0.24087,11775.5
50.4,0.24282,11833.4
50.7,0.2447,11903.1
51,0.24674,11989.5
51.3,0.24896,12087.5
51.6,0.25118,12164.5
51.9,0.25341,12255.2
52.2,0.25572,12363.5
52.5,0.25786,12417.5
52.8,0.26008,12528.3
53.1,0.26228,12615.2
53.4,0.26436,12688.4
53.7,0.26652,12785.1
54,0.27126,12699
54.3,0.2744,12792.8
54.6,0.27697,12908.8
54.9,0.27937,12987.7
55.2,0.28169,13060
55.5,0.28412,13171.4
55.8,0.28656,13220.7
56.1,0.28892,13328.8
56.4,0.29141,13408.9
56.7,0.29389,13483.9
57,0.29643,13585.9
57.3,0.29913,13634.9
57.564,0.30614,13577.8
57.778,0.31716,13376.9
58.078,0.32121,13445.9
58.378,0.32492,13536
58.678,0.33019,13601.2
58.978,0.3379,13547.4
59.278,0.34488,13539.8
59.578,0.35224,13524.4
59.648,0.42008,12293.5
59.654,0.52859,10367.1
59.66,0.65294,8181.34
59.666,0.77314,6084.84
59.672,0.87751,4269.96
59.678,0.96158,2818.2
59.684,1.02445,1737.9
59.69,1.06788,993.459