File: FractureLab/Ti 0deg 3.csv
Time (s),Displacement (mm) ,Load (N),Width (mm),Base (mm),Final crack length (mm)
0,-0.00036,-0.11564,25.0,9.5,6.48
0.3,-0.00025,2.52844
0.6,0.00024,36.06862
0.9,0.00035,61.10199
1.2,0.00078,78.27975
1.5,0.00113,117.201
1.8,0.00146,140.6053
2.1,0.00184,170.141
2.4,0.00226,203.395
2.7,0.00277,218.489
3,0.00328,247.431
3.3,0.00394,281.2435
3.6,0.0045,317.088
3.9,0.00522,363.816
4.2,0.0061,397.606
4.5,0.00711,434.933
4.8,0.00821,496.452
5.1,0.0093,540.961
5.4,0.01057,590.8775
5.7,0.01179,622.837
6,0.01302,675.3
6.3,0.01414,738.943
6.6,0.01543,800.998
6.9,0.0166,828.14
7.2,0.01795,885.164
7.5,0.01935,940.634
7.8,0.02068,998.462
8.1,0.02197,1049.16
8.4,0.02321,1104.74
8.7,0.02449,1171.1
9,0.02577,1230.87
9.3,0.02698,1275.37
9.6,0.02814,1356.55
9.9,0.02931,1414.38
10.2,0.03054,1465.74
10.5,0.03166,1524.83
10.8,0.03286,1603.71
11.1,0.03395,1649.65
11.4,0.03517,1715.26
11.7,0.03639,1792.47
12,0.03757,1848.46
12.3,0.03886,1906.82
12.6,0.04024,1972.85
12.9,0.04158,2051.12
13.2,0.04283,2104.97
13.5,0.04414,2181.56
13.8,0.04547,2240.42
14.1,0.04674,2293.875
14.4,0.04808,2380.81
14.7,0.04943,2457.73
15,0.05072,2491.32
15.3,0.05205,2567.98
15.6,0.05336,2656.23
15.9,0.05467,2716.59
16.2,0.05606,2780.72
16.5,0.05735,2853.58
16.8,0.05869,2918.37
17.1,0.06005,3010.05
17.4,0.06141,3072.15
17.7,0.06268,3117.22
18,0.06399,3207.47
18.3,0.06543,3299.24
18.6,0.06673,3341.15
18.9,0.06808,3411.3
19.2,0.06944,3494.93
19.5,0.07073,3567.88
19.8,0.07208,3640.29
20.1,0.07347,3699.51
20.4,0.07481,3783.04
20.7,0.076,3878.6
21,0.07732,3926.78
21.3,0.07867,4000.53
21.6,0.07996,4093.65
21.9,0.08122,4159.01
22.2,0.08256,4239.48
22.5,0.08382,4311.17
22.8,0.08521,4377.12
23.1,0.08653,4471.18
23.4,0.08793,4534.93
23.7,0.08921,4612.96
24,0.09046,4708.4
24.3,0.09185,4763.6
24.6,0.09317,4853.33
24.9,0.09446,4934.11
25.2,0.09577,5012.76
25.5,0.09708,5093.45
25.8,0.09864,5165.34
26.1,0.0999,5246.23
26.4,0.10125,5338.09
26.7,0.10254,5400.41
27,0.10389,5491.05
27.3,0.10513,5574.97
27.6,0.1064,5642.57
27.9,0.10769,5745.07
28.2,0.10906,5803.26
28.5,0.11045,5893.01
28.8,0.1117,5975.13
29.1,0.11312,6058.06
29.4,0.11445,6146.63
29.7,0.11589,6203.1
30,0.11737,6315.02
30.3,0.11875,6396.74
30.6,0.12006,6462.14
30.9,0.12152,6567.01
31.2,0.12282,6631.16
31.5,0.12434,6723.39
31.8,0.12568,6796.16
32.1,0.12718,6892.22
32.4,0.12859,6994.78
32.7,0.12998,7034.33
33,0.13151,7152.47
33.3,0.13294,7237.81
33.6,0.13425,7302.99
33.9,0.13565,7406.2
34.2,0.13703,7482.34
34.5,0.13854,7586.32
34.8,0.14001,7635.79
35.1,0.1415,7739.7
35.4,0.14299,7846.04
35.7,0.14449,7907.86
36,0.14593,8013.89
36.3,0.1474,8092.53
36.6,0.14892,8176.21
36.9,0.15051,8255.97
37.2,0.15202,8368.4
37.5,0.1536,8450.3
37.8,0.15521,8533.18
38.1,0.15691,8639.8
38.4,0.15848,8702.73
38.7,0.16009,8802.53
39,0.16164,8880.99
39.3,0.16318,8981.67
39.6,0.16473,9072.97
39.9,0.16626,9156.07
40.2,0.16785,9261.42
40.5,0.16955,9329.38
40.8,0.17123,9427.67
41.1,0.17288,9513.41
41.4,0.17459,9606.53
41.7,0.17641,9699.56
42,0.17792,9795.52
42.3,0.17949,9886.65
42.6,0.18121,9974.51
42.9,0.18277,10078.9
43.2,0.18445,10132.8
43.5,0.18612,10252.2
43.8,0.18779,10333.8
44.1,0.18938,10418.3
44.4,0.19094,10523.7
44.7,0.19261,10616.4
45,0.19427,10697
45.3,0.19605,10800
45.6,0.19767,10904.7
45.9,0.19935,10955
46.2,0.20107,11068.7
46.5,0.2028,11164.6
46.8,0.20442,11245.4
47.1,0.20611,11347.6
47.4,0.20779,11446.7
47.7,0.20943,11535.7
48,0.21109,11621.5
48.3,0.21283,11731.5
48.6,0.21461,11797.9
48.9,0.21657,11904.5
49.2,0.21829,11995.7
49.5,0.21996,12091.2
49.8,0.22163,12167.9
50.1,0.22337,12273.6
50.4,0.22519,12378.2
50.7,0.22699,12459.1
51,0.22888,12568.3
51.3,0.23073,12639.4
51.6,0.23259,12748
51.9,0.23457,12826.8
52.2,0.23627,12930.4
52.5,0.23817,13011.3
52.8,0.24015,13111.8
53.1,0.24202,13210.4
53.4,0.24394,13305.4
53.7,0.24574,13403.4
54,0.24748,13481.5
54.3,0.24939,13593.9
54.6,0.25113,13664.6
54.9,0.25301,13771.4
55.2,0.25495,13843.1
55.5,0.25685,13946.5
55.8,0.25888,14037.4
56.1,0.26077,14133.5
56.4,0.26273,14238.2
56.7,0.26452,14311.1
57,0.26642,14410.1
57.3,0.26841,14491.2
57.6,0.27042,14603
57.9,0.27246,14658.9
58.2,0.27448,14761.8
58.5,0.27635,14866.2
58.8,0.27817,14945.9
59.1,0.27993,15052
59.4,0.28183,15138.2
59.7,0.28376,15220.3
60,0.2864,15290.4
60.3,0.28831,15404.1
60.6,0.29024,15470.1
60.9,0.29212,15558.1
61.2,0.29407,15672.4
61.5,0.29645,15728.9
61.8,0.29855,15816.3
62.1,0.30074,15889.9
62.4,0.3029,16003.4
62.7,0.30683,16034.9
63,0.30923,16096.9
63.3,0.31188,16187.6
63.308,0.36412,15066.2
63.31,0.39689,14407.4
,,
,,
,,
,,
,,
,,
,,
,,
,,
,,
,,
,,
,,
,,
,,
,,
,,
,,
,,
,,
,,
,,
,,
,,
,,
,,
,,
,,
,,
,,
,,
,,
,,
,,
,,
,,
,,
,,
,,
,,
,,
,,
,,
,,
,,
,,
,,
,,
,,
,,
,,
,,
,,
,,
,,
,,
,,
,,
,,
,,
,,
,,
,,
,,
,,
,,
,,
,,
,,
,,
,,
,,
,,
,,
,,
,,
,,
,,
,,
,,
,,
,,
,,
,,
,,
,,
,,
,,
,,
,,
,,
,,
,,
,,
,,