File: FractureLab/Ti 90deg 1.csv
Time (s),Displacement (mm) ,Load (N),Width (mm),Base (mm),Final crack length (mm)
0,-0.00115,-0.96053,25.0,9.24,9.8
0.3,-0.00108,-0.07856
0.6,-0.0008,12.08756
0.9,-0.00045,21.66768
1.2,-0.00003,33.80497
1.5,0.00034,56.0237
1.8,0.00075,80.01481
2.1,0.00122,102.766
2.4,0.00169,147.872
2.7,0.00216,174.176
3,0.00273,211.13
3.3,0.00336,233.425
3.6,0.00398,261.998
3.9,0.0047,296.382
4.2,0.00541,337.4603
4.5,0.00622,379.2
4.8,0.00711,416.493
5.1,0.00809,455.345
5.4,0.00917,512.843
5.7,0.01018,558.71
6,0.01136,603.3045
6.3,0.01253,640.31
6.6,0.01386,686.639
6.9,0.01517,744.986
7.2,0.0165,799.684
7.5,0.01783,841.9115
7.8,0.01925,881.716
8.1,0.02075,943.1571
8.4,0.0222,999.8075
8.7,0.02369,1044.9
9,0.02529,1084.86
9.3,0.02679,1142.95
9.6,0.02829,1210.96
9.9,0.02978,1252.91
10.2,0.03142,1303.42
10.5,0.03306,1374.61
10.8,0.0347,1431.36
11.1,0.0363,1469.14
11.4,0.03801,1523.64
11.7,0.03971,1589.58
12,0.04136,1651.7
12.3,0.043,1689.83
12.6,0.04461,1751.68
12.9,0.04621,1824.23
13.2,0.04777,1871.99
13.5,0.04943,1922.43
13.8,0.05123,1986.29
14.1,0.05295,2050.3
14.4,0.05464,2100.22
14.7,0.05631,2158.02
15,0.05808,2222.25
15.3,0.0598,2275.46
15.6,0.06142,2335.34
15.9,0.06308,2415.89
16.2,0.06479,2475.87
16.5,0.06652,2511.52
16.8,0.06829,2569.5
17.1,0.07002,2652.03
17.4,0.07181,2710.22
17.7,0.07355,2769.21
18,0.07534,2823.78
18.3,0.0771,2890.47
18.6,0.0788,2949.68
18.9,0.08074,3037.26
19.2,0.08246,3089.11
19.5,0.08426,3130.99
19.8,0.086,3193.56
20.1,0.08777,3285.46
20.4,0.08953,3339.26
20.7,0.09136,3391.23
21,0.09321,3474.24
21.3,0.09507,3538.82
21.6,0.09694,3607.13
21.9,0.09877,3664.74
22.2,0.10069,3720.2
22.5,0.10248,3793.78
22.8,0.10428,3876.73
23.1,0.1061,3937.21
23.4,0.1079,3982.15
23.7,0.10983,4063.64
24,0.11169,4136.92
24.3,0.11359,4196.4
24.6,0.11539,4265.49
24.9,0.11732,4330.4
25.2,0.11917,4388.73
25.5,0.12108,4482.95
25.8,0.12291,4540.43
26.1,0.12484,4595.6
26.4,0.12677,4681.02
26.7,0.12853,4759.41
27,0.13058,4805.1
27.3,0.13243,4887.78
27.6,0.13442,4957.61
27.9,0.13621,5020.36
28.2,0.13818,5095.41
28.5,0.14009,5170.08
28.8,0.14204,5222.98
29.1,0.14395,5307.87
29.4,0.14587,5374.97
29.7,0.14787,5448.19
30,0.14978,5518.49
30.3,0.1517,5592.08
30.6,0.15365,5655.68
30.9,0.1558,5740.83
31.2,0.15776,5800.73
31.5,0.15966,5876.3
31.8,0.16161,5954.6
32.1,0.1636,6017.24
32.4,0.16566,6092.64
32.7,0.16762,6175.39
33,0.16978,6229.01
33.3,0.17178,6324.61
33.6,0.17391,6405.44
33.9,0.17586,6449.29
34.2,0.17776,6525.74
34.5,0.17978,6613.95
34.8,0.18189,6686.97
35.1,0.18402,6754.41
35.4,0.18614,6822.01
35.7,0.18819,6909.88
36,0.19021,6998.48
36.3,0.19224,7040.24
36.6,0.19441,7127.31
36.9,0.19649,7217.5
37.2,0.19862,7281.9
37.5,0.20064,7350.46
37.8,0.20285,7436.59
38.1,0.205,7520.17
38.4,0.20708,7597
38.7,0.20918,7647.6
39,0.21136,7729.22
39.3,0.21359,7834.65
39.6,0.21577,7883.77
39.9,0.21778,7966.78
40.2,0.21985,8049.39
40.5,0.22197,8120.79
40.8,0.22409,8192.66
41.1,0.22638,8266.36
41.4,0.22861,8342.59
41.7,0.23084,8444.14
42,0.23304,8491.56
42.3,0.23512,8576.34
42.6,0.23731,8669.45
42.9,0.23944,8726.67
43.2,0.2418,8815.5
43.5,0.24388,8885.34
43.8,0.24615,8970.45
44.1,0.24834,9047.77
44.4,0.25064,9116.54
44.7,0.25284,9204.89
45,0.25511,9289.45
45.3,0.25732,9343.16
45.6,0.25952,9430.02
45.9,0.26172,9512.54
46.2,0.26394,9582.78
46.5,0.26619,9677.48
46.8,0.26857,9732.81
47.1,0.27094,9821.53
47.4,0.27319,9900.53
47.7,0.27545,9969.31
48,0.27771,10059.3
48.3,0.27994,10126.8
48.6,0.28222,10203.1
48.9,0.28463,10294.3
49.2,0.28695,10359.8
49.5,0.28934,10431.6
49.8,0.29169,10527.7
50.1,0.29403,10583.4
50.4,0.29638,10672.8
50.7,0.29868,10735.3
51,0.30132,10824.9
51.3,0.3039,10910.3
51.6,0.30638,10962.4
51.9,0.30891,11032.6
52.2,0.31132,11131.6
52.5,0.31392,11200.5
52.8,0.3164,11269.3
53.1,0.31882,11351.5
53.4,0.32121,11419.6
53.7,0.32384,11510.1
54,0.32654,11565.8
54.3,0.32925,11647.3
54.6,0.33192,11725.9
54.9,0.3345,11797.2
55.2,0.33708,11851
55.5,0.33965,11946.3
55.8,0.34222,12013.7
56.1,0.34471,12095.2
56.4,0.34764,12155.2
56.7,0.35097,12201.2
57,0.35775,12185
57.3,0.36252,12216.8
57.6,0.36589,12283.6
57.65,0.38365,11865.3
57.676,0.39962,11474.3
57.976,0.40576,11512.8
58.276,0.4097,11568.4
58.576,0.41364,11654.1
58.876,0.41755,11747.3
59.176,0.42156,11801.2
59.476,0.4258,11854.5
59.776,0.42971,11942.5
60.076,0.43401,11981.5
60.376,0.4381,12053.6
60.676,0.44233,12108.7
60.976,0.44726,12145.6
61.276,0.45156,12182.7
61.576,0.45552,12229.9
61.876,0.46308,12198.5
61.926,0.47795,11786
62.152,0.48813,11655.6
62.452,0.49368,11710.2
62.752,0.50039,11732.4
63.052,0.50728,11744.5
63.352,0.51414,11750.5
63.652,0.52035,11767.6
63.952,0.52592,11795.5
64.092,0.53836,11484.1
64.392,0.5503,11374.6
64.692,0.55873,11360
64.992,0.56565,11362.4
65.262,0.57867,11190.7
65.488,0.59422,10957.6
65.788,0.60104,10957.1
66.088,0.60657,10964.8
66.388,0.61211,10981.5
66.688,0.61753,11025.1
66.988,0.62373,11032.9
67.288,0.63125,11001.125
67.588,0.63739,11016.5
67.888,0.64564,10969.2
68.188,0.65521,10916.2
68.488,0.66305,10877.7
68.788,0.673,10779.7
69.04,0.6895,10548
69.158,0.70913,10157.2
69.262,0.72874,9770.07
69.34,0.74862,9363.6
69.352,0.77299,8832.92
69.364,0.80247,8194.29
69.376,0.82487,7716.18
69.402,0.84652,7270.43
69.52,0.87247,6891.43
69.556,0.90013,6416.85
69.568,0.92871,5921.74
69.58,0.95465,5486.32
69.6,0.9813,5058.42