File: FractureLab/Ti 90deg 3.csv
Time (s),Displacement (mm) ,Load (N),Width (mm),Base (mm),Final crack length (mm)
0,-0.00076,-0.02752,25,9.24,8.21
0.3,-0.00061,3.18274
0.6,-0.00029,12.32141
0.9,-0.00005,21.77358
1.2,0.00017,35.46357
1.5,0.00044,62.82241
1.8,0.00077,76.75123
2.1,0.0011,103.997
2.4,0.00144,130.726
2.7,0.00178,152.66
3,0.00224,175.579
3.3,0.0026,207.356
3.6,0.0031,217.581
3.9,0.00355,240.787
4.2,0.00419,271.53
4.5,0.00488,300.82
4.8,0.00558,337.847
5.1,0.00631,379.482
5.4,0.00703,417.617
5.7,0.00784,450.064
6,0.00871,508.935
6.3,0.00963,552.429
6.6,0.0105,598.34
6.9,0.01148,630.416
7.2,0.01258,678.7196
7.5,0.01359,738.774
7.8,0.01473,800.577
8.1,0.01586,830.329
8.4,0.01698,876.028
8.7,0.01835,938.782
9,0.0196,997.33
9.3,0.02088,1047.99
9.6,0.0222,1102.06
9.9,0.0235,1158.23
10.2,0.02485,1224.43
10.5,0.02625,1262.24
10.8,0.02758,1328.81
11.1,0.02896,1390.01
11.4,0.03042,1440.17
11.7,0.03183,1492.63
12,0.03326,1558.98
12.3,0.0347,1624.22
12.6,0.03604,1662.12
12.9,0.03755,1728.2
13.2,0.03895,1804.85
13.5,0.0403,1855.41
13.8,0.04171,1905.29
14.1,0.04315,1970.177
14.4,0.04465,2042.41
14.7,0.04604,2093.51
15,0.04762,2160.61
15.3,0.04914,2227.92
15.6,0.05052,2268.96
15.9,0.05199,2346.57
16.2,0.05352,2418.55
16.5,0.05495,2479.42
16.8,0.05633,2528.31
17.1,0.05786,2606.22
17.4,0.05937,2683.79
17.7,0.06087,2734.93
18,0.0624,2796.25
18.3,0.06394,2865.11
18.6,0.06556,2929.06
18.9,0.06712,3019.13
19.2,0.06869,3077.36
19.5,0.07011,3114.84
19.8,0.07168,3200.39
20.1,0.07326,3286.6
20.4,0.0748,3339.48
20.7,0.07635,3399.26
21,0.07793,3482.14
21.3,0.07948,3539.08
21.6,0.08107,3624.4
21.9,0.0826,3682.45
22.2,0.08414,3741.3
22.5,0.08574,3832.83
22.8,0.08729,3915.24
23.1,0.08899,3949.29
23.4,0.09063,4024.56
23.7,0.0923,4108.24
24,0.0939,4171.92
24.3,0.09551,4248.62
24.6,0.09714,4319.55
24.9,0.09868,4377.64
25.2,0.10024,4472.44
25.5,0.10183,4535.3
25.8,0.10354,4605.59
26.1,0.10522,4689.45
26.4,0.10697,4759.17
26.7,0.10861,4823.38
27,0.11025,4904.67
27.3,0.112,4974.76
27.6,0.1136,5054.7
27.9,0.11523,5132.88
28.2,0.11692,5186.96
28.5,0.1186,5282.85
28.8,0.1204,5355.8
29.1,0.1221,5428.88
29.4,0.12371,5500.93
29.7,0.12553,5582.73
30,0.12719,5650.2
30.3,0.12888,5747.78
30.6,0.13065,5805.12
30.9,0.13235,5888.96
31.2,0.13425,5969.31
31.5,0.13601,6033.58
31.8,0.13768,6122.52
32.1,0.13935,6187.91
32.4,0.14112,6274.88
32.7,0.14284,6366.35
33,0.14455,6422.28
33.3,0.14642,6495.82
33.6,0.14821,6595.12
33.9,0.15001,6662.32
34.2,0.15179,6737.04
34.5,0.15364,6811.33
34.8,0.15546,6903.4
35.1,0.15723,6999.47
35.4,0.15901,7035.02
35.7,0.16077,7135.05
36,0.1628,7234.58
36.3,0.16459,7297.88
36.6,0.16641,7382.13
36.9,0.16826,7456.33
37.2,0.17014,7559.06
37.5,0.17197,7619.23
37.8,0.17372,7688.84
38.1,0.17557,7788.17
38.4,0.17745,7858.83
38.7,0.17947,7938
39,0.18132,8033.22
39.3,0.18319,8106.47
39.6,0.18509,8182.06
39.9,0.18694,8258.12
40.2,0.18885,8354.48
40.5,0.19077,8448.4
40.8,0.19281,8505.21
41.1,0.19467,8601.2
41.4,0.19668,8688.79
41.7,0.19864,8766.15
42,0.20057,8855.06
42.3,0.20243,8925.36
42.6,0.20448,9011.14
42.9,0.20653,9094.42
43.2,0.20848,9186.03
43.5,0.21036,9275.58
43.8,0.21226,9335.92
44.1,0.21424,9425.41
44.4,0.2162,9512.54
44.7,0.21819,9593.44
45,0.22024,9695.53
45.3,0.22235,9757.58
45.6,0.22441,9842.36
45.9,0.2264,9922.91
46.2,0.22838,10018.1
46.5,0.23041,10104.2
46.8,0.23244,10176.8
47.1,0.23441,10279.1
47.4,0.23654,10348.8
47.7,0.2388,10421.5
48,0.24107,10523.5
48.3,0.24312,10597.7
48.6,0.24519,10681.8
48.9,0.24724,10744.4
49.2,0.24931,10849.2
49.5,0.25151,10943.7
49.8,0.25345,11003.6
50.1,0.25564,11114.7
50.4,0.2577,11187
50.7,0.25981,11262.3
51,0.26197,11354.9
51.3,0.2642,11442.4
51.6,0.26656,11537.1
51.9,0.26861,11590.1
52.2,0.27075,11695.5
52.5,0.27284,11785.4
52.8,0.275,11847
53.1,0.27723,11953.3
53.4,0.2795,12033.7
53.7,0.2817,12113.2
54,0.284,12183.5
54.3,0.28633,12277.9
54.6,0.2887,12376.9
54.9,0.29095,12429.6
55.2,0.29334,12524
55.5,0.29578,12616.2
55.8,0.29811,12686.1
56.1,0.30058,12783.8
56.4,0.30299,12847
56.7,0.30549,12937.4
57,0.30803,13010.1
57.3,0.31042,13093.3
57.6,0.31298,13196.6
57.9,0.31519,13248.5
58.2,0.31757,13348.4
58.5,0.3201,13420
58.8,0.32272,13493.2
59.1,0.32523,13591
59.4,0.3277,13648
59.7,0.33011,13740.5
60,0.33257,13818.9
60.3,0.33544,13888.6
60.6,0.33862,13953.2
60.9,0.34143,14037.1
61.2,0.34425,14084.7
61.5,0.3498,14118.8
61.8,0.35339,14197.3
62.1,0.35622,14256.5
62.4,0.35911,14319.3
62.692,0.36882,14208.2
62.706,0.38833,13735.3
62.722,0.4077,13284
62.848,0.42051,13058.7
63.148,0.4254,13126.9
63.448,0.42982,13203.5
63.748,0.43374,13249.9
64.048,0.43816,13343.6
64.348,0.44243,13408.3
64.648,0.44838,13420.3
64.948,0.45582,13403
65.248,0.4623,13402.5
65.388,0.47357,13138.9
65.614,0.48452,13000.5
65.914,0.48976,13039.4
66.214,0.49438,13101.1
66.514,0.49883,13179
66.814,0.50309,13220.6
67.114,0.50765,13282.5
67.414,0.51291,13325.7
67.714,0.5183,13355.8
68.014,0.5239,13377.4
68.314,0.52867,13425.4
68.614,0.53302,13473.2
68.914,0.53779,13519.5
69.214,0.54316,13546.3
69.514,0.54816,13600.1
69.814,0.55402,13614.8
70.114,0.56817,13406.4
70.414,0.5771,13339.8
70.714,0.58644,13240.7
71.014,0.59486,13206.9
71.314,0.60049,13219.4
71.614,0.60873,13191.9
71.914,0.61883,13072.4
72.214,0.6261,13052.6
72.514,0.63278,13047
72.814,0.63906,13050.7
73.114,0.64604,13038.7
73.414,0.65918,12888
73.714,0.67159,12745.2
73.828,0.68917,12359.7
73.974,0.70821,11970.1
74.014,0.72465,11591
74.028,0.75528,10982.4
74.03,0.77202,10671.6