File: FractureLab/Ti 90deg 2.csv
Time (s),Displacement (mm) ,Load (N),Width (mm),Base (mm),Final crack length (mm)
0,-0.00023,0.8829,25.0,9.24,7.67
0.3,-0.00017,1.52057
0.6,0.00032,17.06333
0.9,0.00073,43.70475
1.2,0.00122,78.02995
1.5,0.00168,128.4
1.8,0.0022,160.0715
2.1,0.0027,202.21
2.4,0.00325,223.867
2.7,0.00372,254.419
3,0.00433,288.12
3.3,0.00495,329.304
3.6,0.00561,376.291
3.9,0.00628,416.712
4.2,0.00699,449.401
4.5,0.00777,509.206
4.8,0.00861,558.63
5.1,0.00942,604.976
5.4,0.01031,642.198
5.7,0.01117,698.66
6,0.0121,760.261
6.3,0.01309,820.706
6.6,0.01421,857.292
6.9,0.01532,912.877
7.2,0.0164,973.036
7.5,0.01746,1033.37
7.8,0.01858,1081.99
8.1,0.01971,1148.07
8.4,0.02083,1214.93
8.7,0.02198,1262.01
9,0.02314,1327.66
9.3,0.02436,1391.58
9.6,0.0256,1444.57
9.9,0.02671,1498.43
10.2,0.02803,1571.61
10.5,0.02935,1638.84
10.8,0.03061,1680
11.1,0.03189,1753.44
11.4,0.03321,1833.92
11.7,0.0345,1878.81
12,0.03581,1941.1
12.3,0.03707,2007.27
12.6,0.0383,2071.8
12.9,0.03958,2134.96
13.2,0.04091,2201.84
13.5,0.04219,2259.36
13.8,0.0435,2318.76
14.1,0.04481,2406.49
14.4,0.0461,2468.67
14.7,0.04743,2507.99
15,0.04879,2584.3
15.3,0.05008,2663.25
15.6,0.0514,2723.2
15.9,0.05273,2782.45
16.2,0.05416,2856.85
16.5,0.05559,2923.72
16.8,0.05703,3005.47
17.1,0.05842,3073.37
17.4,0.05982,3118.23
17.7,0.06121,3197.49
18,0.06258,3285.35
18.3,0.06394,3341.64
18.6,0.06524,3407.24
18.9,0.0666,3484.59
19.2,0.06802,3551.35
19.5,0.06939,3633.73
19.8,0.07076,3690.5
20.1,0.07226,3751.33
20.4,0.07379,3848.82
20.7,0.07524,3922.88
21,0.07661,3961.1
21.3,0.07808,4050.56
21.6,0.07947,4132.25
21.9,0.0809,4201.24
22.2,0.08236,4265.17
22.5,0.08378,4335
22.8,0.08522,4419.87
23.1,0.08676,4498.05
23.4,0.08821,4556.65
23.7,0.08968,4631.75
24,0.09116,4724.34
24.3,0.09267,4777.31
24.6,0.09417,4861.29
24.9,0.0957,4941.03
25.2,0.09715,5007.46
25.5,0.09869,5088.22
25.8,0.10022,5164.77
26.1,0.10185,5235.7
26.4,0.10337,5322.29
26.7,0.10485,5385.34
27,0.10632,5470.7
27.3,0.10784,5559.74
27.6,0.10942,5616.93
27.9,0.11086,5711.71
28.2,0.11256,5786.69
28.5,0.1141,5862.48
28.8,0.11581,5953.41
29.1,0.1174,6016.89
29.4,0.1189,6101.72
29.7,0.12047,6181.56
30,0.12203,6252.26
30.3,0.12358,6346.73
30.6,0.12511,6416.47
30.9,0.12678,6484.31
31.2,0.12828,6585.45
31.5,0.12992,6650.63
31.8,0.13161,6736.55
32.1,0.13326,6809.33
32.4,0.13487,6902.24
32.7,0.13648,6999.4
33,0.13807,7040.31
33.3,0.13969,7143.84
33.6,0.14144,7240.9
33.9,0.14296,7304.29
34.2,0.1447,7398.6
34.5,0.14638,7470.82
34.8,0.14804,7572.78
35.1,0.14965,7631.42
35.4,0.15126,7717.61
35.7,0.15289,7822.98
36,0.15456,7876
36.3,0.15628,7974.06
36.6,0.15802,8065.94
36.9,0.15979,8147.06
37.2,0.16138,8226.56
37.5,0.16312,8298.36
37.8,0.16482,8405.82
38.1,0.16652,8471.32
38.4,0.16821,8562.69
38.7,0.16994,8666.15
39,0.17178,8740.12
39.3,0.17362,8834.81
39.6,0.17538,8907.63
39.9,0.17705,9000.22
40.2,0.17877,9086.58
40.5,0.18057,9165.64
40.8,0.18232,9270.98
41.1,0.18403,9331.37
41.4,0.18575,9425.54
41.7,0.18766,9515.67
42,0.18947,9600.2
42.3,0.19127,9701.56
42.6,0.19304,9775.03
42.9,0.19485,9867.74
43.2,0.19661,9947.87
43.5,0.19844,10047.1
43.8,0.20023,10118.125
44.1,0.20208,10215
44.4,0.20406,10317.3
44.7,0.20582,10388.6
45,0.20767,10488.8
45.3,0.20945,10562.8
45.6,0.21132,10662.6
45.9,0.21314,10730.6
46.2,0.21496,10832.4
46.5,0.21696,10937.2
46.8,0.21874,10988.3
47.1,0.2206,11110.8
47.4,0.22241,11185
47.7,0.22431,11267.8
48,0.22623,11358.1
48.3,0.22815,11455.1
48.6,0.23004,11543.1
48.9,0.23206,11620.2
49.2,0.23407,11736
49.5,0.236,11800.7
49.8,0.23785,11887.9
50.1,0.23972,11975.9
50.4,0.24161,12081.8
50.7,0.24359,12160.8
51,0.24564,12241.7
51.3,0.24757,12358.7
51.6,0.2496,12407.8
51.9,0.25159,12509.8
52.2,0.25356,12611
52.5,0.25549,12686.9
52.8,0.25745,12789.9
53.1,0.25946,12876.9
53.4,0.26139,12966.4
53.7,0.2634,13045
54,0.26539,13143.2
54.3,0.26732,13223
54.6,0.26944,13317.2
54.9,0.27156,13410.3
55.2,0.27378,13487.5
55.5,0.27591,13588.2
55.8,0.27791,13650.9
56.1,0.27989,13753.6
56.4,0.28197,13828.5
56.7,0.28398,13919.1
57,0.28609,14019.9
57.3,0.28824,14067.4
57.6,0.29061,14181.2
57.9,0.29276,14258.9
58.2,0.29536,14324.2
58.5,0.29838,14382.1
58.8,0.30074,14468.8
59.1,0.30309,14564.6
59.4,0.30552,14638.6
59.7,0.30799,14699.7
60,0.31105,14772.9
60.3,0.31352,14869.2
60.6,0.31627,14908.6
60.9,0.32239,14892.1
61.2,0.32768,14908.3
61.5,0.33104,14984.7
61.8,0.33432,15065.8
62.034,0.34345,14917.6
62.186,0.35702,14611
62.486,0.36119,14650
62.786,0.36509,14728.6
63.086,0.36878,14816.6
63.386,0.37263,14876.6
63.686,0.37638,14933
63.986,0.38009,15008.1
64.286,0.38341,15080.5
64.586,0.38714,15154.1
64.886,0.39073,15199.6
65.186,0.39448,15262.3
65.316,0.40636,14987.2
65.36,0.421,14597.9
65.66,0.42546,14643.5
65.96,0.43005,14678.4
66.26,0.43463,14765.5
66.56,0.43907,14830.7
66.86,0.44341,14875.2
67.16,0.45085,14853.1
67.31,0.467,14460.6
67.538,0.47815,14291.9
67.756,0.49234,14035.8
67.786,0.50784,13644.9
67.838,0.52409,13234.7
68.138,0.53459,13164.5
68.438,0.54283,13104.1
68.738,0.54943,13087.7
69.038,0.55625,13080.4
69.338,0.56294,13071
69.628,0.5755,12900.3
69.684,0.59145,12494.2
69.706,0.6084,12045.7
69.744,0.62576,11636.7
69.824,0.64423,11250.4
69.912,0.66419,10811.6
69.944,0.68289,10385.2
69.992,0.70159,9994.18
70.194,0.72164,9664.93
70.494,0.739,9404.85
70.794,0.75427,9221.26
70.928,0.77371,8836.56
70.96,0.79419,8427.18
71.116,0.81874,8042.49
71.402,0.8395,7751.39
71.574,0.86306,7367.19
71.874,0.88214,7149.34
72.174,0.8925,7060.66
72.474,0.90718,6918.65
72.554,0.93253,6469.44
72.572,0.95874,6005.91
72.584,0.98314,5585.47
72.596,1.01278,5100.25
72.6,1.02238,4946.75